Gold, thin film 4nm (Yakubovsky et al., 2019)
1 2 3 0 0 = columns for wave, Re(n), Im(n), eps1, eps2
wave(um) Re(n)   Im(n)   
0.3054   1.4686  1.5118
0.3186   1.6775  1.4151
0.3361   1.8037  1.2817
0.3536   1.8390  1.1704
0.3711   1.7255  1.1325
0.3886   1.6220  1.1754
0.4062   1.5236  1.2212
0.4237   1.4050  1.2752
0.4412   1.2562  1.2486
0.4587   1.1426  1.4176
0.4762   1.0064  1.5564
0.4938   0.8903  1.7013
0.5113   0.8297  1.8317
0.5288   0.7793  2.0358
0.5463   0.7364  2.1443
0.5638   0.6910  2.2225
0.5814   0.6329  2.3285
0.5989   0.5900  2.4421
0.6164   0.5471  2.5682
0.6339   0.5143  2.7020
0.6514   0.5118  2.8332
0.6690   0.5118  2.9618
0.6865   0.5269  3.0379
0.7040   0.5421  3.1720
0.7215   0.5673  3.3529
0.7390   0.5976  3.4741
0.7566   0.6329  3.6179
0.7741   0.6758  3.7188
0.7916   0.7061  3.8021
0.8091   0.7490  3.8753
0.8266   0.8095  3.9181
0.8442   0.8726  3.9207
0.8617   0.9307  4.0090
0.8792   0.9433  4.1553
0.8967   0.9660  4.3017
0.9142   0.9685  4.4480
0.9318   0.9811  4.5969
0.9493   0.9912  4.7357
0.9668   0.9761  4.9072
0.9843   0.9660  5.0729
1.0018   0.9357  5.2706
1.0194   0.9433  5.3867
1.0369   0.9685  5.4472
1.0544   0.9937  5.5078
1.0719   0.9963  5.5683
1.0894   1.0215  5.6390
1.1069   1.0265  5.6995
1.1245   1.0291  5.7727
1.1420   1.0417  5.8434
1.1595   1.0442  5.9165
1.1770   1.0568  5.9922
1.1945   1.0568  6.0805
1.2121   1.0568  6.1714
1.2296   1.0568  6.2597
1.2471   1.0568  6.3657
1.2646   1.0568  6.4515
1.2821   1.0568  6.5372
1.2997   1.0644  6.6281
1.3172   1.0821  6.7265
1.3347   1.0871  6.8148
1.3522   1.1022  6.9006
1.3697   1.1174  6.9914
1.3873   1.1325  7.0646
1.4048   1.1477  7.1428
1.4223   1.1628  7.2437
1.4398   1.1779  7.3295
1.4573   1.2006  7.4002
1.4749   1.2107  7.4784
1.4924   1.2385  7.5591
1.5099   1.2486  7.6323
1.5274   1.2688  7.7030
1.5449   1.2890  7.7812
1.5625   1.2990  7.8544
1.5800   1.3192  7.9250
1.5975   1.3293  8.0058
1.6150   1.3495  8.0739
1.6325   1.3596  8.1571
1.6501   1.3874  8.2354
1.6676   1.3899  8.3111
1.6851   1.4025  8.3893
1.7026   1.4202  8.4574
1.7201   1.4202  8.5356
1.7377   1.4454  8.6113
1.7552   1.4504  8.6845
1.7727   1.4530  8.7602
1.7902   1.4782  8.8334
1.8077   1.4807  8.9091
1.8253   1.4807  8.9898
1.8428   1.4984  9.0731
1.8603   1.5110  9.1563
1.8778   1.5110  9.2371
1.8953   1.5337  9.3128
1.9129   1.5413  9.4011
1.9304   1.5413  9.4894
1.9479   1.5589  9.5550
1.9654   1.5716  9.6278
1.9829   1.5816  9.7619
2.0005   1.5993  9.8452
2.0180   1.6018  9.9158
2.0355   1.6018  9.9840
2.0530   1.6044  10.0773
2.0705   1.6296  10.1707
2.0881   1.6321  10.2464
2.1056   1.6346  10.3296
2.1231   1.6573  10.4432
2.1406   1.6624  10.5340
2.1581   1.6801  10.6122
2.1757   1.6927  10.7005
2.1932   1.6927  10.7762
2.2107   1.6927  10.8620
2.2282   1.7204  10.9655
2.2457   1.7280  11.0563
2.2633   1.7406  11.1396
2.2808   1.7532  11.2355
2.2983   1.7785  11.3314
2.3158   1.7835  11.4020
2.3333   1.7860  11.4727
2.3509   1.8138  11.5610
2.3684   1.8138  11.6392
2.3859   1.8289  11.7325
2.4034   1.8592  11.8284
2.4209   1.9046  11.9167
2.4385   1.9324  12.0252
2.4560   1.9349  12.1186
2.4735   1.9627  12.2019
2.4910   1.9652  12.2851
2.5085   1.9778  12.3810
2.5261   2.0030  12.4870
2.5436   2.0257  12.6005
2.5611   2.0484  12.6788
2.5786   2.0686  12.7469
2.5961   2.0863  12.8478
2.6137   2.1040  12.9336
2.6312   2.1166  13.0042
2.6487   2.1241  13.1052
2.6662   2.1544  13.1834
2.6837   2.1771  13.2818
2.7013   2.1998  13.3701
2.7188   2.2352  13.4887
2.7363   2.2680  13.5543
2.7538   2.2982  13.6754
2.7713   2.3235  13.7738
2.7889   2.3336  13.8420
2.8064   2.3588  13.9303
2.8239   2.3714  14.0110
2.8414   2.4118  14.1195
2.8589   2.4395  14.2255
2.8764   2.4496  14.2785
2.8940   2.4622  14.3416
2.9115   2.4875  14.4270
2.9290   2.5152  14.5308
2.9465   2.5531  14.6191
2.9640   2.5707  14.7251
2.9816   2.5884  14.7932
2.9991   2.6313  14.8512
3.0166   2.6616  14.9633
3.0341   2.6868  15.1010
3.0516   2.7171  15.1894
3.0692   2.7474  15.2625
3.0867   2.7726  15.3483
3.1042   2.7877  15.4467
3.1217   2.8231  15.5174
3.1392   2.8559  15.5880
3.1568   2.8988  15.7192
3.1743   2.9063  15.7949
3.1918   2.9442  15.8782
3.2093   2.9694  15.9820
3.2268   2.9921  16.0851
3.2444   2.9946  16.1431
3.2619   3.0375  16.2466
3.2794   3.0754  16.3475
3.2969   3.1309  16.3884
